Freq (Hz),Real Part,Imaginary Part
2200000000.0,0.949243,0.092123
2204000000.0,0.951003,0.046068
2208000000.0,0.948842,0.066245
2212000000.0,0.942935,0.02417
2216000000.0,0.95235,0.00368
2220000000.0,0.949336,0.01494
2224000000.0,0.948077,0.007717
2228000000.0,0.952483,-0.030283
2232000000.0,0.945466,-0.03457
2236000000.0,0.949646,-0.04787
2240000000.0,0.954868,-0.033603
2244000000.0,0.944334,-0.050445
2248000000.0,0.939746,-0.091198
2252000000.0,0.942353,-0.084858
2256000000.0,0.939728,-0.099745
2260000000.0,0.93946,-0.101551
2264000000.0,0.944388,-0.116771
2268000000.0,0.944568,-0.135073
2272000000.0,0.943819,-0.124721
2276000000.0,0.944417,-0.153496
2280000000.0,0.934832,-0.185579
2284000000.0,0.924702,-0.159968
2288000000.0,0.931215,-0.191421
2292000000.0,0.935084,-0.209571
2296000000.0,0.922871,-0.229695
2300000000.0,0.925091,-0.259528
2304000000.0,0.924261,-0.240777
2308000000.0,0.906994,-0.244487
2312000000.0,0.915947,-0.27898
2316000000.0,0.911266,-0.281449
2320000000.0,0.913707,-0.311665
2324000000.0,0.903177,-0.316565
2328000000.0,0.900169,-0.32615
2332000000.0,0.889488,-0.359323
2336000000.0,0.899038,-0.342296
2340000000.0,0.888168,-0.367406
2344000000.0,0.876424,-0.401176
2348000000.0,0.875285,-0.376063
2352000000.0,0.862339,-0.412139
2356000000.0,0.870674,-0.404655
2360000000.0,0.842753,-0.441206
2364000000.0,0.838345,-0.452986
2368000000.0,0.840956,-0.448296
2372000000.0,0.829184,-0.472985
2376000000.0,0.814697,-0.48957
2380000000.0,0.816757,-0.479951
2384000000.0,0.79982,-0.507319
2388000000.0,0.793566,-0.518389
2392000000.0,0.785446,-0.516998
2396000000.0,0.770195,-0.539254
2400000000.0,0.762171,-0.549002
2404000000.0,0.751972,-0.560737
2408000000.0,0.734004,-0.569
2412000000.0,0.725392,-0.569218
2416000000.0,0.73233,-0.57119
2420000000.0,0.735987,-0.557901
2424000000.0,0.706124,-0.591347
2428000000.0,0.711046,-0.597473
2432000000.0,0.703338,-0.600381
2436000000.0,0.679667,-0.610509
2440000000.0,0.663651,-0.621515
2444000000.0,0.654698,-0.626352
2448000000.0,0.659481,-0.631824
2452000000.0,0.644319,-0.642701
2456000000.0,0.63134,-0.657981
2460000000.0,0.619599,-0.661288
2464000000.0,0.626181,-0.668778
2468000000.0,0.615494,-0.665953
2472000000.0,0.595945,-0.681822
2476000000.0,0.578553,-0.673857
2480000000.0,0.584964,-0.698176
2484000000.0,0.585218,-0.696817
2488000000.0,0.565677,-0.709697
2492000000.0,0.548198,-0.730227
2496000000.0,0.554492,-0.73651
2500000000.0,0.53833,-0.73086
2504000000.0,0.505216,-0.76901
2508000000.0,0.518665,-0.756949
2512000000.0,0.502659,-0.767441
2516000000.0,0.509275,-0.768137
2520000000.0,0.484661,-0.789549
2524000000.0,0.493898,-0.789342
2528000000.0,0.454879,-0.800102
2532000000.0,0.442404,-0.808864
2536000000.0,0.446634,-0.811614
2540000000.0,0.438383,-0.81709
2544000000.0,0.41809,-0.817212
2548000000.0,0.39797,-0.828034
2552000000.0,0.388602,-0.823634
2556000000.0,0.372966,-0.840655
2560000000.0,0.369738,-0.843724
2564000000.0,0.350915,-0.837744
2568000000.0,0.348393,-0.849609
2572000000.0,0.322384,-0.852709
2576000000.0,0.31657,-0.858834
2580000000.0,0.298467,-0.870848
2584000000.0,0.296702,-0.869475
2588000000.0,0.278134,-0.8739
2592000000.0,0.230019,-0.882944
2596000000.0,0.25029,-0.874997
2600000000.0,0.209549,-0.893031
2604000000.0,0.22888,-0.888927
2608000000.0,0.195581,-0.893719
2612000000.0,0.191997,-0.903159
2616000000.0,0.186788,-0.902106
2620000000.0,0.170928,-0.909849
2624000000.0,0.151901,-0.908835
2628000000.0,0.148873,-0.921784
2632000000.0,0.097168,-0.914379
2636000000.0,0.096343,-0.925179
2640000000.0,0.072846,-0.925878
2644000000.0,0.068078,-0.918373
2648000000.0,0.064389,-0.92611
2652000000.0,0.036002,-0.933398
2656000000.0,0.016124,-0.93853
2660000000.0,-0.001026,-0.934745
2664000000.0,-0.045087,-0.915486
2668000000.0,-0.043035,-0.925625
2672000000.0,-0.047274,-0.917817
2676000000.0,-0.076312,-0.919067
2680000000.0,-0.072092,-0.917379
2684000000.0,-0.115103,-0.908601
2688000000.0,-0.135622,-0.902319
2692000000.0,-0.132445,-0.877908
2696000000.0,-0.169511,-0.891586
2700000000.0,-0.189846,-0.878565
2704000000.0,-0.229162,-0.856569
2708000000.0,-0.215065,-0.861194
2712000000.0,-0.232029,-0.860753
2716000000.0,-0.252124,-0.853751
2720000000.0,-0.263829,-0.838842
2724000000.0,-0.272987,-0.838423
2728000000.0,-0.291125,-0.831818
2732000000.0,-0.325316,-0.826567
2736000000.0,-0.331294,-0.806597
2740000000.0,-0.335348,-0.810975
2744000000.0,-0.366519,-0.793444
2748000000.0,-0.364484,-0.772002
2752000000.0,-0.371938,-0.769376
2756000000.0,-0.390287,-0.766997
2760000000.0,-0.407858,-0.758086
2764000000.0,-0.420662,-0.72345
2768000000.0,-0.402958,-0.723721
2772000000.0,-0.420528,-0.734295
2776000000.0,-0.452602,-0.717028
2780000000.0,-0.46668,-0.678189
2784000000.0,-0.474586,-0.676593
2788000000.0,-0.490002,-0.666006
2792000000.0,-0.489414,-0.657665
2796000000.0,-0.511108,-0.651529
2800000000.0,-0.52404,-0.624455
2804000000.0,-0.524382,-0.62415
2808000000.0,-0.558971,-0.606259
2812000000.0,-0.56791,-0.599029
2816000000.0,-0.577594,-0.582409
2820000000.0,-0.576366,-0.572787
2824000000.0,-0.589259,-0.549538
2828000000.0,-0.616793,-0.521911
2832000000.0,-0.617122,-0.542094
2836000000.0,-0.608093,-0.532845
2840000000.0,-0.620951,-0.513157
2844000000.0,-0.64286,-0.47663
2848000000.0,-0.653662,-0.46927
2852000000.0,-0.663376,-0.452703
2856000000.0,-0.682932,-0.421045
2860000000.0,-0.697235,-0.397476
2864000000.0,-0.695511,-0.387237
2868000000.0,-0.69971,-0.371656
2872000000.0,-0.71705,-0.355658
2876000000.0,-0.712967,-0.336815
2880000000.0,-0.732234,-0.291365
2884000000.0,-0.73471,-0.290791
2888000000.0,-0.735466,-0.266551
2892000000.0,-0.73684,-0.23463
2896000000.0,-0.737997,-0.221695
2900000000.0,-0.740525,-0.189375
2904000000.0,-0.741653,-0.175162
2908000000.0,-0.740939,-0.133079
2912000000.0,-0.736453,-0.101177
2916000000.0,-0.733668,-0.093619
2920000000.0,-0.735636,-0.041419
2924000000.0,-0.730279,-0.028678
2928000000.0,-0.719815,-0.006666
2932000000.0,-0.708558,0.00552
2936000000.0,-0.696282,0.051029
2940000000.0,-0.685691,0.073707
2944000000.0,-0.680604,0.085664
2948000000.0,-0.654531,0.123159
2952000000.0,-0.64748,0.139701
2956000000.0,-0.621385,0.155989
2960000000.0,-0.612423,0.178933
2964000000.0,-0.593375,0.197679
2968000000.0,-0.580305,0.190593
2972000000.0,-0.551233,0.242629
2976000000.0,-0.525555,0.26278
2980000000.0,-0.512482,0.266882
2984000000.0,-0.493321,0.280488
2988000000.0,-0.450258,0.308964
2992000000.0,-0.441361,0.301784
2996000000.0,-0.414799,0.316815
3000000000.0,-0.396317,0.316449
