Freq (Hz),Real Part,Imaginary Part
2300000000.0,0.889265,-0.292907
2303500000.0,0.896657,-0.260563
2307000000.0,0.886738,-0.297725
2310500000.0,0.870422,-0.308134
2314000000.0,0.877065,-0.317148
2317500000.0,0.883666,-0.327636
2321000000.0,0.882897,-0.319869
2324500000.0,0.880263,-0.333886
2328000000.0,0.873262,-0.361363
2331500000.0,0.857958,-0.373086
2335000000.0,0.863999,-0.373006
2338500000.0,0.852289,-0.392952
2342000000.0,0.859904,-0.380263
2345500000.0,0.831505,-0.439669
2349000000.0,0.84341,-0.421582
2352500000.0,0.848229,-0.423715
2356000000.0,0.838375,-0.438557
2359500000.0,0.852786,-0.426831
2363000000.0,0.821605,-0.456725
2366500000.0,0.821242,-0.478249
2370000000.0,0.807197,-0.491383
2373500000.0,0.806345,-0.500357
2377000000.0,0.795326,-0.507294
2380500000.0,0.787648,-0.519238
2384000000.0,0.77038,-0.539892
2387500000.0,0.778646,-0.535998
2391000000.0,0.759716,-0.553519
2394500000.0,0.763374,-0.559004
2398000000.0,0.739065,-0.575606
2401500000.0,0.726022,-0.592123
2405000000.0,0.750135,-0.573931
2408500000.0,0.742314,-0.571108
2412000000.0,0.765782,-0.535381
2415500000.0,0.690357,-0.631937
2419000000.0,0.686281,-0.633124
2422500000.0,0.688081,-0.633619
2426000000.0,0.679212,-0.634827
2429500000.0,0.661779,-0.652402
2433000000.0,0.666912,-0.652173
2436500000.0,0.654185,-0.666328
2440000000.0,0.642047,-0.676341
2443500000.0,0.631136,-0.680783
2447000000.0,0.612758,-0.687285
2450500000.0,0.617966,-0.679317
2454000000.0,0.602809,-0.700926
2457500000.0,0.590564,-0.714272
2461000000.0,0.594727,-0.725634
2464500000.0,0.555309,-0.742091
2468000000.0,0.568532,-0.729054
2471500000.0,0.556115,-0.726201
2475000000.0,0.531611,-0.74933
2478500000.0,0.550635,-0.747492
2482000000.0,0.509146,-0.748634
2485500000.0,0.495135,-0.770062
2489000000.0,0.507692,-0.7635
2492500000.0,0.494334,-0.773598
2496000000.0,0.492031,-0.772923
2499500000.0,0.45758,-0.773971
2503000000.0,0.465713,-0.792663
2506500000.0,0.437911,-0.803004
2510000000.0,0.418491,-0.794612
2513500000.0,0.449795,-0.796261
2517000000.0,0.415733,-0.804902
2520500000.0,0.396872,-0.807039
2524000000.0,0.39088,-0.818356
2527500000.0,0.383654,-0.813573
2531000000.0,0.368285,-0.805983
2534500000.0,0.351215,-0.809979
2538000000.0,0.350978,-0.828169
2541500000.0,0.362966,-0.796443
2545000000.0,0.26213,-0.832712
2548500000.0,0.320629,-0.821522
2552000000.0,0.317102,-0.820012
2555500000.0,0.303065,-0.8232
2559000000.0,0.297808,-0.823377
2562500000.0,0.313603,-0.822127
2566000000.0,0.284835,-0.828661
2569500000.0,0.234482,-0.838063
2573000000.0,0.255808,-0.837945
2576500000.0,0.260363,-0.845463
2580000000.0,0.248243,-0.845944
2583500000.0,0.244118,-0.843965
2587000000.0,0.23198,-0.846126
2590500000.0,0.193472,-0.852352
2594000000.0,0.204163,-0.857606
2597500000.0,0.210931,-0.863122
2601000000.0,0.185367,-0.864874
2604500000.0,0.181245,-0.878293
2608000000.0,0.200762,-0.878059
2611500000.0,0.156256,-0.886057
2615000000.0,0.15358,-0.894004
2618500000.0,0.129184,-0.910094
2622000000.0,0.11851,-0.912566
2625500000.0,0.114716,-0.916486
2629000000.0,0.095648,-0.922206
2632500000.0,0.081497,-0.928283
2636000000.0,0.07457,-0.922983
2639500000.0,0.044748,-0.945964
2643000000.0,0.039555,-0.934032
2646500000.0,0.034366,-0.950047
2650000000.0,0.028657,-0.958743
2653500000.0,0.00225,-0.942286
2657000000.0,-0.01134,-0.944664
2660500000.0,-0.036483,-0.950249
2664000000.0,-0.060898,-0.943056
2667500000.0,-0.080541,-0.940839
2671000000.0,-0.103276,-0.943521
2674500000.0,-0.11029,-0.944286
2678000000.0,-0.145283,-0.937232
2681500000.0,-0.146269,-0.9443
2685000000.0,-0.180176,-0.925618
2688500000.0,-0.19492,-0.925365
2692000000.0,-0.217284,-0.910588
2695500000.0,-0.229847,-0.909673
2699000000.0,-0.26254,-0.893934
2702500000.0,-0.280953,-0.884791
2706000000.0,-0.284248,-0.891
2709500000.0,-0.32522,-0.874621
2713000000.0,-0.302897,-0.860736
2716500000.0,-0.333302,-0.851018
2720000000.0,-0.352084,-0.847386
2723500000.0,-0.355434,-0.835495
2727000000.0,-0.395118,-0.823544
2730500000.0,-0.416228,-0.805023
2734000000.0,-0.400464,-0.789196
2737500000.0,-0.40834,-0.782547
2741000000.0,-0.436298,-0.77813
2744500000.0,-0.44521,-0.772995
2748000000.0,-0.387655,-0.791671
2751500000.0,-0.475605,-0.727459
2755000000.0,-0.461163,-0.726237
2758500000.0,-0.487592,-0.701045
2762000000.0,-0.493078,-0.694609
2765500000.0,-0.543559,-0.639125
2769000000.0,-0.503853,-0.667931
2772500000.0,-0.5097,-0.65421
2776000000.0,-0.536511,-0.639904
2779500000.0,-0.538944,-0.629591
2783000000.0,-0.522608,-0.626743
2786500000.0,-0.54471,-0.60404
2790000000.0,-0.566316,-0.585258
2793500000.0,-0.568214,-0.575542
2797000000.0,-0.574986,-0.568786
2800500000.0,-0.584793,-0.561431
2804000000.0,-0.592977,-0.532298
2807500000.0,-0.606165,-0.52882
2811000000.0,-0.604537,-0.521901
2814500000.0,-0.601184,-0.504957
2818000000.0,-0.614775,-0.50344
2821500000.0,-0.597146,-0.496922
2825000000.0,-0.617584,-0.472487
2828500000.0,-0.626452,-0.464925
2832000000.0,-0.636772,-0.443063
2835500000.0,-0.645204,-0.420854
2839000000.0,-0.640566,-0.426086
2842500000.0,-0.655872,-0.409754
2846000000.0,-0.650997,-0.391834
2849500000.0,-0.647902,-0.384258
2853000000.0,-0.66556,-0.367947
2856500000.0,-0.668237,-0.362839
2860000000.0,-0.680952,-0.332244
2863500000.0,-0.681808,-0.332625
2867000000.0,-0.696445,-0.299274
2870500000.0,-0.694129,-0.28247
2874000000.0,-0.701439,-0.274965
2877500000.0,-0.702176,-0.268698
2881000000.0,-0.710841,-0.244959
2884500000.0,-0.712146,-0.231845
2888000000.0,-0.717271,-0.221519
2891500000.0,-0.720797,-0.138679
2895000000.0,-0.709673,-0.198104
2898500000.0,-0.720531,-0.159149
2902000000.0,-0.722317,-0.13335
2905500000.0,-0.723987,-0.124647
2909000000.0,-0.721263,-0.139566
2912500000.0,-0.722809,-0.078638
2916000000.0,-0.716993,-0.071528
2919500000.0,-0.71973,-0.03696
2923000000.0,-0.718454,-0.008419
2926500000.0,-0.707384,0.00785
2930000000.0,-0.708456,0.033107
2933500000.0,-0.705617,0.040255
2937000000.0,-0.684579,0.065808
2940500000.0,-0.67789,0.111308
2944000000.0,-0.668191,0.131927
2947500000.0,-0.658971,0.138486
2951000000.0,-0.631715,0.18622
2954500000.0,-0.630231,0.175313
2958000000.0,-0.614198,0.193285
2961500000.0,-0.597459,0.221201
2965000000.0,-0.590306,0.218362
2968500000.0,-0.567694,0.247084
2972000000.0,-0.535314,0.269113
2975500000.0,-0.526855,0.26711
2979000000.0,-0.492862,0.295642
2982500000.0,-0.471525,0.316874
2986000000.0,-0.454655,0.315252
2989500000.0,-0.438905,0.320497
2993000000.0,-0.411592,0.332741
2996500000.0,-0.387427,0.338525
3000000000.0,-0.372914,0.34405
