Freq (Hz),Real Part,Imaginary Part
2300000000.0,0.621605,-0.38117
2303500000.0,0.631348,-0.388444
2307000000.0,0.599775,-0.39665
2310500000.0,0.59198,-0.395122
2314000000.0,0.571437,-0.434006
2317500000.0,0.575861,-0.41952
2321000000.0,0.570197,-0.419104
2324500000.0,0.567639,-0.421869
2328000000.0,0.563096,-0.421384
2331500000.0,0.546182,-0.437221
2335000000.0,0.543154,-0.428132
2338500000.0,0.538163,-0.434322
2342000000.0,0.521043,-0.448154
2345500000.0,0.517053,-0.446709
2349000000.0,0.510135,-0.442249
2352500000.0,0.506853,-0.447303
2356000000.0,0.507583,-0.444362
2359500000.0,0.482151,-0.462291
2363000000.0,0.484405,-0.459295
2366500000.0,0.469697,-0.472502
2370000000.0,0.463032,-0.4694
2373500000.0,0.461201,-0.471234
2377000000.0,0.451796,-0.470394
2380500000.0,0.443034,-0.478013
2384000000.0,0.439097,-0.480497
2387500000.0,0.412695,-0.500566
2391000000.0,0.4202,-0.489551
2394500000.0,0.411977,-0.488416
2398000000.0,0.402482,-0.503884
2401500000.0,0.407235,-0.495817
2405000000.0,0.386712,-0.49906
2408500000.0,0.376393,-0.514222
2412000000.0,0.376065,-0.504756
2415500000.0,0.366494,-0.50949
2419000000.0,0.350921,-0.512536
2422500000.0,0.347957,-0.513932
2426000000.0,0.333823,-0.524765
2429500000.0,0.33464,-0.521874
2433000000.0,0.31351,-0.527681
2436500000.0,0.311586,-0.527083
2440000000.0,0.302079,-0.525679
2443500000.0,0.289313,-0.530153
2447000000.0,0.281284,-0.530286
2450500000.0,0.265618,-0.537818
2454000000.0,0.251273,-0.545432
2457500000.0,0.242814,-0.540282
2461000000.0,0.228887,-0.540547
2464500000.0,0.21711,-0.541521
2468000000.0,0.215656,-0.539402
2471500000.0,0.206068,-0.536131
2475000000.0,0.193659,-0.535711
2478500000.0,0.173169,-0.535911
2482000000.0,0.157295,-0.534121
2485500000.0,0.151868,-0.533016
2489000000.0,0.130003,-0.53546
2492500000.0,0.113008,-0.534595
2496000000.0,0.114493,-0.526469
2499500000.0,0.103576,-0.514953
2503000000.0,0.09423,-0.511827
2506500000.0,0.065871,-0.506442
2510000000.0,0.054987,-0.502148
2513500000.0,0.050012,-0.497463
2517000000.0,0.046599,-0.482438
2520500000.0,0.025511,-0.4778
2524000000.0,0.014419,-0.466251
2527500000.0,0.014978,-0.451015
2531000000.0,-0.003454,-0.449255
2534500000.0,-0.013266,-0.434933
2538000000.0,-0.015906,-0.424947
2541500000.0,-0.019404,-0.421129
2545000000.0,-0.022929,-0.3995
2548500000.0,-0.035734,-0.388775
2552000000.0,-0.043006,-0.38186
2555500000.0,-0.041149,-0.366668
2559000000.0,-0.045101,-0.359414
2562500000.0,-0.055307,-0.34418
2566000000.0,-0.051921,-0.332277
2569500000.0,-0.049485,-0.322256
2573000000.0,-0.060601,-0.309192
2576500000.0,-0.060887,-0.300046
2580000000.0,-0.056652,-0.288073
2583500000.0,-0.059006,-0.278606
2587000000.0,-0.055869,-0.269304
2590500000.0,-0.054325,-0.258347
2594000000.0,-0.05034,-0.248016
2597500000.0,-0.047676,-0.240606
2601000000.0,-0.049664,-0.229879
2604500000.0,-0.045336,-0.220896
2608000000.0,-0.038576,-0.214518
2611500000.0,-0.037927,-0.201391
2615000000.0,-0.035749,-0.194982
2618500000.0,-0.03121,-0.187812
2622000000.0,-0.026726,-0.180918
2625500000.0,-0.021505,-0.172633
2629000000.0,-0.019469,-0.164676
2632500000.0,-0.016034,-0.156908
2636000000.0,-0.009892,-0.150624
2639500000.0,-0.005583,-0.140865
2643000000.0,0.000836,-0.135548
2646500000.0,0.006742,-0.129433
2650000000.0,0.010324,-0.121794
2653500000.0,0.018308,-0.115579
2657000000.0,0.022354,-0.107374
2660500000.0,0.028568,-0.099574
2664000000.0,0.031141,-0.094244
2667500000.0,0.040447,-0.086276
2671000000.0,0.046214,-0.078564
2674500000.0,0.055461,-0.069516
2678000000.0,0.063126,-0.062182
2681500000.0,0.068002,-0.059084
2685000000.0,0.083034,-0.048016
2688500000.0,0.092464,-0.041118
2692000000.0,0.106812,-0.030145
2695500000.0,0.120385,-0.025108
2699000000.0,0.134336,-0.019213
2702500000.0,0.151793,-0.015837
2706000000.0,0.170119,-0.008297
2709500000.0,0.18809,-0.006582
2713000000.0,0.207414,-0.009706
2716500000.0,0.229383,-0.008719
2720000000.0,0.249472,-0.013773
2723500000.0,0.273122,-0.020866
2727000000.0,0.295502,-0.029367
2730500000.0,0.318528,-0.037902
2734000000.0,0.333925,-0.051349
2737500000.0,0.359307,-0.054641
2741000000.0,0.37242,-0.086044
2744500000.0,0.391544,-0.116132
2748000000.0,0.400623,-0.127983
2751500000.0,0.42422,-0.139547
2755000000.0,0.422126,-0.177564
2758500000.0,0.437241,-0.193254
2762000000.0,0.431327,-0.235023
2765500000.0,0.434923,-0.244188
2769000000.0,0.441873,-0.266651
2772500000.0,0.438316,-0.286702
2776000000.0,0.426832,-0.31928
2779500000.0,0.433593,-0.336002
2783000000.0,0.414586,-0.359858
2786500000.0,0.410168,-0.375633
2790000000.0,0.403072,-0.380227
2793500000.0,0.375231,-0.412827
2797000000.0,0.367387,-0.425755
2800500000.0,0.351658,-0.448564
2804000000.0,0.330458,-0.460327
2807500000.0,0.330448,-0.464132
2811000000.0,0.297062,-0.487258
2814500000.0,0.288393,-0.488947
2818000000.0,0.2784,-0.49895
2821500000.0,0.255909,-0.504149
2825000000.0,0.239794,-0.511534
2828500000.0,0.222931,-0.512075
2832000000.0,0.20332,-0.518888
2835500000.0,0.196075,-0.530275
2839000000.0,0.177456,-0.525417
2842500000.0,0.18026,-0.51691
2846000000.0,0.169877,-0.522694
2849500000.0,0.106706,-0.540557
2853000000.0,0.120446,-0.523375
2856500000.0,0.103238,-0.515775
2860000000.0,0.100254,-0.514996
2863500000.0,0.085176,-0.506779
2867000000.0,0.074644,-0.505175
2870500000.0,0.06665,-0.506154
2874000000.0,0.06687,-0.498925
2877500000.0,0.052233,-0.493444
2881000000.0,0.00676,-0.488868
2884500000.0,0.037183,-0.48637
2888000000.0,0.022499,-0.48299
2891500000.0,0.026461,-0.485315
2895000000.0,0.027185,-0.475488
2898500000.0,0.016248,-0.470079
2902000000.0,0.022357,-0.466032
2905500000.0,0.024456,-0.460903
2909000000.0,0.009548,-0.458296
2912500000.0,0.014707,-0.453814
2916000000.0,-0.001287,-0.451229
2919500000.0,0.001405,-0.449853
2923000000.0,-0.001801,-0.444029
2926500000.0,0.004595,-0.446101
2930000000.0,0.006751,-0.440252
2933500000.0,-0.003426,-0.438639
2937000000.0,-0.000551,-0.435175
2940500000.0,-0.007266,-0.434149
2944000000.0,-0.003509,-0.430676
2947500000.0,-0.008822,-0.429413
2951000000.0,-0.017527,-0.430186
2954500000.0,-0.028844,-0.427563
2958000000.0,-0.014397,-0.429906
2961500000.0,-0.021967,-0.433499
2965000000.0,-0.010205,-0.436635
2968500000.0,-0.022624,-0.431647
2972000000.0,-0.019228,-0.430569
2975500000.0,-0.034595,-0.432158
2979000000.0,-0.033453,-0.430562
2982500000.0,-0.032737,-0.428729
2986000000.0,-0.028415,-0.437324
2989500000.0,-0.030901,-0.434019
2993000000.0,-0.043333,-0.434045
2996500000.0,-0.03259,-0.437429
3000000000.0,-0.053371,-0.436034
